PASP ukwk4iii
// Data as: wavelength(nm) Pflux.for.exactly.Vmag10(photons/s/nm/m2),
//   adapted from Pickles A.J., PASP 110 863(1998).
   280.00000     26.13881
   280.50000     26.22849
   281.00000     25.93590
   281.50000     25.35610
   282.00000     24.57949
   282.50000     23.71331
   283.00000     22.84391
   283.50000     22.06367
   284.00000     21.48198
   284.50000     21.18713
   285.00000     21.28446
   285.50000     21.84171
   286.00000     22.82292
   286.50000     24.15891
   287.00000     25.78550
   287.50000     27.63806
   288.00000     29.64596
   288.50000     31.74915
   289.00000     33.87054
   289.50000     35.94357
   290.00000     37.90126
   290.50000     39.68730
   291.00000     41.30634
   291.50000     42.76308
   292.00000     44.06785
   292.50000     45.24226
   293.00000     46.29687
   293.50000     47.24230
   294.00000     48.09487
   294.50000     48.86538
   295.00000     49.57038
   295.50000     50.22083
   296.00000     50.83349
   296.50000     51.41384
   297.00000     51.99015
   297.50000     52.56241
   298.00000     53.15916
   298.50000     53.78621
   299.00000     54.46092
   299.50000     55.20074
   300.00000     56.01173
   300.50000     56.92304
   301.00000     57.95246
   301.50000     59.12949
   302.00000     60.48956
   302.50000     62.05676
   303.00000     63.86113
   303.50000     65.92711
   304.00000     68.29091
   304.50000     70.98316
   305.00000     74.02884
   305.50000     77.44719
   306.00000     81.19308
   306.50000     85.20931
   307.00000     89.42653
   307.50000     93.79851
   308.00000     98.26098
   308.50000    102.74335
   309.00000    107.19828
   309.50000    111.56029
   310.00000    115.76351
   310.50000    119.75948
   311.00000    123.58888
   311.50000    127.27471
   312.00000    130.87008
   312.50000    134.42239
   313.00000    137.96140
   313.50000    141.53507
   314.00000    145.19167
   314.50000    148.96770
   315.00000    152.91804
   315.50000    157.04952
   316.00000    161.27812
   316.50000    165.50110
   317.00000    384.17854
   317.50000    366.00265
   318.00000    348.15772
   318.50000    321.06027
   319.00000    299.33663
   319.50000    297.27027
   320.00000    421.12843
   320.50000    418.56717
   321.00000    397.32078
   321.50000    360.87028
   322.00000    322.79223
   322.50000    296.46980
   323.00000    284.18099
   323.50000    284.39146
   324.00000    291.43924
   324.50000    300.19313
   325.00000    311.95675
   325.50000    328.75297
   326.00000    348.97383
   326.50000    369.84974
   327.00000    387.64755
   327.50000    399.78522
   328.00000    409.36145
   328.50000    421.50270
   329.00000    443.80109
   329.50000    477.10491
   330.00000    492.72606
   330.50000    468.06155
   331.00000    435.05905
   331.50000    428.13532
   332.00000    436.19524
   332.50000    440.87395
   333.00000    440.61135
   333.50000    439.39343
   334.00000    446.40340
   334.50000    467.21825
   335.00000    487.72728
   335.50000    489.93440
   336.00000    460.46377
   336.50000    399.51581
   337.00000    357.40277
   337.50000    376.35178
   338.00000    415.19441
   338.50000    429.45434
   339.00000    446.11344
   339.50000    493.63455
   340.00000    534.05282
   340.50000    529.30327
   341.00000    508.31358
   341.50000    508.30609
   342.00000    531.75956
   342.50000    565.23910
   343.00000    566.46535
   343.50000    506.44994
   344.00000    439.05004
   344.50000    422.18176
   345.00000    445.72941
   345.50000    481.84090
   346.00000    500.26016
   346.50000    483.33515
   347.00000    466.78493
   347.50000    483.89741
   348.00000    503.93899
   348.50000    495.73804
   349.00000    491.33147
   349.50000    524.74260
   350.00000    573.87291
   350.50000    606.21025
   351.00000    604.43754
   351.50000    565.51804
   352.00000    528.63782
   352.50000    532.78077
   353.00000    573.11461
   353.50000    631.07710
   354.00000    677.33967
   354.50000    685.59463
   355.00000    652.73405
   355.50000    587.17046
   356.00000    520.00043
   356.50000    476.03130
   357.00000    431.51934
   357.50000    366.60992
   358.00000    326.24280
   358.50000    354.98392
   359.00000    429.95921
   359.50000    513.15649
   360.00000    573.97642
   360.50000    503.89350
   361.00000    512.82026
   361.50000    533.32143
   362.00000    566.83275
   362.50000    608.01571
   363.00000    642.85279
   363.50000    658.94923
   364.00000    663.34437
   364.50000    670.38324
   365.00000    692.70565
   365.50000    737.56979
   366.00000    786.91793
   366.50000    816.87448
   367.00000    821.78782
   367.50000    803.77430
   368.00000    778.36532
   368.50000    763.36693
   369.00000    758.21353
   369.50000    755.43031
   370.00000    754.53755
   370.50000    753.06437
   371.00000    739.15321
   371.50000    704.97030
   372.00000    658.20655
   372.50000    608.57263
   373.00000    565.90305
   373.50000    537.95875
   374.00000    525.66682
   374.50000    530.10255
   375.00000    542.46263
   375.50000    555.53040
   376.00000    583.93263
   376.50000    638.52717
   377.00000    709.56810
   377.50000    778.89930
   378.00000    808.66808
   378.50000    773.30085
   379.00000    706.24171
   379.50000    649.50748
   380.00000    622.30445
   380.50000    626.66077
   381.00000    622.10895
   381.50000    572.27579
   382.00000    504.15728
   382.50000    454.85604
   383.00000    435.87761
   383.50000    450.30384
   384.00000    483.58062
   384.50000    517.08995
   385.00000    543.69588
   385.50000    557.70331
   386.00000    560.13588
   386.50000    557.76458
   387.00000    553.17456
   387.50000    553.26531
   388.00000    581.33454
   388.50000    649.39098
   389.00000    728.96234
   389.50000    790.91402
   390.00000    837.62948
   390.50000    878.02460
   391.00000    906.01865
   391.50000    903.07219
   392.00000    838.67886
   392.50000    702.69470
   393.00000    559.73195
   393.50000    491.34277
   394.00000    540.29601
   394.50000    702.33543
   395.00000    876.37619
   395.50000    951.61574
   396.00000    902.99205
   396.50000    773.54807
   397.00000    707.51678
   397.50000    826.96223
   398.00000   1070.22348
   398.50000   1324.40574
   399.00000   1533.08722
   399.50000   1672.20916
   400.00000   1756.05386
   400.50000   1818.25369
   401.00000   1890.41166
   401.50000   1978.76000
   402.00000   2034.20245
   402.50000   2013.03822
   403.00000   1944.32124
   403.50000   1883.81968
   404.00000   1878.23164
   404.50000   1943.44764
   405.00000   2025.15339
   405.50000   2058.32590
   406.00000   2028.86186
   406.50000   1962.68793
   407.00000   1928.94085
   407.50000   1983.42791
   408.00000   2102.91757
   408.50000   2229.11515
   409.00000   2293.46680
   409.50000   2258.45859
   410.00000   2179.41681
   410.50000   2129.91196
   411.00000   2131.19055
   411.50000   2169.48446
   412.00000   2205.44846
   412.50000   2202.49506
   413.00000   2161.20285
   413.50000   2105.47331
   414.00000   2059.86387
   414.50000   2041.50254
   415.00000   2066.35882
   415.50000   2131.04480
   416.00000   2185.01151
   416.50000   2190.53587
   417.00000   2169.02532
   417.50000   2153.57119
   418.00000   2168.74618
   418.50000   2217.44404
   419.00000   2252.89516
   419.50000   2243.46523
   420.00000   2240.01242
   420.50000   2294.47619
   421.00000   2377.53460
   421.50000   2439.65534
   422.00000   2467.94977
   422.50000   2475.23109
   423.00000   2518.72705
   423.50000   2642.77699
   424.00000   2771.68054
   424.50000   2821.60790
   425.00000   2832.89893
   425.50000   2859.05334
   426.00000   2881.76635
   426.50000   2879.44216
   427.00000   2859.57201
   427.50000   2835.98437
   428.00000   2838.07066
   428.50000   2868.94380
   429.00000   2825.42581
   429.50000   2642.91488
   430.00000   2480.72635
   430.50000   2508.67298
   431.00000   2702.31088
   431.50000   2976.90522
   432.00000   3253.11409
   432.50000   3463.54681
   433.00000   3601.54875
   433.50000   3690.03491
   434.00000   3742.56808
   434.50000   3779.09605
   435.00000   3848.74365
   435.50000   3970.21599
   436.00000   4088.43854
   436.50000   4139.38129
   437.00000   4068.31247
   437.50000   3873.68908
   438.00000   3695.62892
   438.50000   3655.49136
   439.00000   3708.40024
   439.50000   3776.24774
   440.00000   3832.99701
   440.50000   3882.33350
   441.00000   3959.12769
   441.50000   4081.80368
   442.00000   4193.22452
   442.50000   4241.30389
   443.00000   4268.26006
   443.50000   4327.94579
   444.00000   4408.30935
   444.50000   4474.06818
   445.00000   4487.44341
   445.50000   4440.13666
   446.00000   4428.51712
   446.50000   4543.52417
   447.00000   4740.65854
   447.50000   4935.52044
   448.00000   5060.44693
   448.50000   5087.41600
   449.00000   5097.45128
   449.50000   5183.14871
   450.00000   5351.62709
   450.50000   5554.11142
   451.00000   5666.99221
   451.50000   5596.41172
   452.00000   5421.61920
   452.50000   5263.34047
   453.00000   5175.12224
   453.50000   5173.50599
   454.00000   5240.86867
   454.50000   5346.38763
   455.00000   5460.64733
   455.50000   5568.26484
   456.00000   5676.64737
   456.50000   5785.23668
   457.00000   5859.09696
   457.50000   5865.97215
   458.00000   5826.37906
   458.50000   5780.95511
   459.00000   5757.47619
   459.50000   5780.21919
   460.00000   5876.80238
   460.50000   6050.75903
   461.00000   6249.63730
   461.50000   6412.56484
   462.00000   6502.22800
   462.50000   6503.93679
   463.00000   6424.34581
   463.50000   6290.27261
   464.00000   6183.23659
   464.50000   6166.65125
   465.00000   6218.40969
   465.50000   6292.84074
   466.00000   6337.67130
   466.50000   6326.60462
   467.00000   6301.04230
   467.50000   6306.83868
   468.00000   6346.11308
   468.50000   6397.18574
   469.00000   6430.32750
   469.50000   6426.94105
   470.00000   6402.09039
   470.50000   6388.97815
   471.00000   6429.34501
   471.50000   6539.18727
   472.00000   6650.13469
   472.50000   6693.26376
   473.00000   6688.51424
   473.50000   6683.07712
   474.00000   6719.34601
   474.50000   6810.71446
   475.00000   6879.11496
   475.50000   6854.71850
   476.00000   6800.70149
   476.50000   6801.50608
   477.00000   6860.33178
   477.50000   6951.58573
   478.00000   7032.61599
   478.50000   7068.70009
   479.00000   7096.86512
   479.50000   7161.50871
   480.00000   7238.77598
   480.50000   7296.23830
   481.00000   7342.36217
   481.50000   7385.28954
   482.00000   7403.41763
   482.50000   7385.67195
   483.00000   7363.61462
   483.50000   7361.88580
   484.00000   7362.06741
   484.50000   7329.35639
   485.00000   7235.66716
   485.50000   7082.44930
   486.00000   6910.54773
   486.50000   6778.19145
   487.00000   6760.43790
   487.50000   6884.52611
   488.00000   7053.45668
   488.50000   7172.50896
   489.00000   7276.03310
   489.50000   7415.41950
   490.00000   7534.05438
   490.50000   7560.61277
   491.00000   7491.56525
   491.50000   7359.18052
   492.00000   7258.64277
   492.50000   7273.46817
   493.00000   7377.19823
   493.50000   7511.19668
   494.00000   7635.90628
   494.50000   7727.78999
   495.00000   7777.20192
   495.50000   7788.07811
   496.00000   7801.27080
   496.50000   7833.92780
   497.00000   7814.14107
   497.50000   7693.16343
   498.00000   7552.82498
   498.50000   7483.98141
   499.00000   7480.95650
   499.50000   7491.03766
   500.00000   7445.78320
   500.50000   7316.51351
   501.00000   7177.99124
   501.50000   7122.44776
   502.00000   7183.07103
   502.50000   7328.20971
   503.00000   7437.30161
   503.50000   7420.74899
   504.00000   7333.46776
   504.50000   7278.61817
   505.00000   7334.75625
   505.50000   7505.43877
   506.00000   7660.42101
   506.50000   7672.31114
   507.00000   7538.69220
   507.50000   7338.71076
   508.00000   7211.28622
   508.50000   7243.63951
   509.00000   7363.71891
   509.50000   7457.66998
   510.00000   7467.47174
   510.50000   7399.13909
   511.00000   7332.36264
   511.50000   7331.54614
   512.00000   7358.01800
   512.50000   7349.85832
   513.00000   7319.84777
   513.50000   7304.45090
   514.00000   7285.14782
   514.50000   7241.10768
   515.00000   7217.65005
   515.50000   7232.38489
   516.00000   7179.70649
   516.50000   6984.58881
   517.00000   6744.35446
   517.50000   6593.57654
   518.00000   6632.22803
   518.50000   6886.50126
   519.00000   7197.07468
   519.50000   7402.81536
   520.00000   7498.28547
   520.50000   7531.98549
   521.00000   7575.37388
   521.50000   7674.40286
   522.00000   7786.09554
   522.50000   7872.56802
   523.00000   7981.22748
   523.50000   8161.00738
   524.00000   8362.41052
   524.50000   8496.82054
   525.00000   8498.91242
   525.50000   8344.29273
   526.00000   8114.61903
   526.50000   7938.61945
   527.00000   7912.62982
   527.50000   8084.33982
   528.00000   8431.35693
   528.50000   8862.38311
   529.00000   9175.83090
   529.50000   9244.90618
   530.00000   9226.75384
   530.50000   9299.24933
   531.00000   9419.55237
   531.50000   9474.85011
   532.00000   9405.82095
   532.50000   9219.83091
   533.00000   9048.42257
   533.50000   9031.99866
   534.00000   9180.71009
   534.50000   9427.63413
   535.00000   9676.23471
   535.50000   9843.70766
   536.00000   9882.97246
   536.50000   9810.00070
   537.00000   9732.63474
   537.50000   9729.47705
   538.00000   9783.12072
   538.50000   9831.64475
   539.00000   9777.05559
   539.50000   9583.00470
   540.00000   9372.73991
   540.50000   9285.00051
   541.00000   9384.05088
   541.50000   9649.34841
   542.00000   9900.95886
   542.50000   9983.66667
   543.00000   9938.25349
   543.50000   9871.77806
   544.00000   9888.53467
   544.50000  10031.59920
   545.00000  10189.95358
   545.50000  10246.91138
   546.00000  10247.33402
   546.50000  10268.41953
   547.00000  10262.26437
   547.50000  10178.20778
   548.00000  10100.76652
   548.50000  10111.53864
   549.00000  10196.13781
   549.50000  10320.08994
   550.00000  10416.20654
   550.50000  10432.08119
   551.00000  10415.53127
   551.50000  10416.59940
   552.00000  10435.21724
   552.50000  10469.36730
   553.00000  10498.38906
   553.50000  10514.91572
   554.00000  10576.83267
   554.50000  10715.85275
   555.00000  10865.78766
   555.50000  10953.53332
   556.00000  10950.59229
   556.50000  10867.92044
   557.00000  10786.80137
   557.50000  10769.89580
   558.00000  10765.29676
   558.50000  10711.42516
   559.00000  10616.37822
   559.50000  10527.98667
   560.00000  10573.43118
   560.50000  10822.89732
   561.00000  11079.07191
   561.50000  11150.69580
   562.00000  11117.84575
   562.50000  11108.75979
   563.00000  11140.04584
   563.50000  11187.24842
   564.00000  11225.13301
   564.50000  11234.37019
   565.00000  11207.09661
   565.50000  11157.43747
   566.00000  11121.94024
   566.50000  11127.39988
   567.00000  11185.44594
   567.50000  11286.82954
   568.00000  11384.63983
   568.50000  11439.90820
   569.00000  11433.75075
   569.50000  11362.76312
   570.00000  11262.40531
   570.50000  11176.81424
   571.00000  11155.90779
   571.50000  11241.92379
   572.00000  11444.22175
   572.50000  11724.57569
   573.00000  11923.95686
   573.50000  11916.90419
   574.00000  11801.61769
   574.50000  11715.92327
   575.00000  11687.72973
   575.50000  11701.07011
   576.00000  11723.43679
   576.50000  11727.13754
   577.00000  11717.75357
   577.50000  11715.30985
   578.00000  11736.94259
   578.50000  11785.44227
   579.00000  11846.61651
   579.50000  11911.68901
   580.00000  11985.60600
   580.50000  12077.68168
   581.00000  12186.65961
   581.50000  12295.32787
   582.00000  12380.75899
   582.50000  12431.12374
   583.00000  12453.07033
   583.50000  12454.90308
   584.00000  12435.93215
   584.50000  12391.06224
   585.00000  12325.73300
   585.50000  12269.60064
   586.00000  12255.07382
   586.50000  12280.24694
   587.00000  12292.85394
   587.50000  12213.06178
   588.00000  11996.49590
   588.50000  11689.08220
   589.00000  11416.31006
   589.50000  11303.93757
   590.00000  11399.33193
   590.50000  11640.76587
   591.00000  11894.26105
   591.50000  12058.66278
   592.00000  12120.47826
   592.50000  12135.78064
   593.00000  12173.06438
   593.50000  12254.19432
   594.00000  12347.22856
   594.50000  12411.58168
   595.00000  12443.12059
   595.50000  12470.02619
   596.00000  12523.39617
   596.50000  12605.96127
   597.00000  12683.89796
   597.50000  12722.34144
   598.00000  12714.17691
   598.50000  12681.54421
   599.00000  12659.06987
   599.50000  12662.08660
   600.00000  12680.20355
   600.50000  12697.19350
   601.00000  12708.35324
   601.50000  12727.66575
   602.00000  12775.20741
   602.50000  12858.13978
   603.00000  12962.78420
   603.50000  13066.63584
   604.00000  13151.50323
   604.50000  13208.35840
   605.00000  13238.43045
   605.50000  13245.41338
   606.00000  13236.54501
   606.50000  13226.81851
   607.00000  13232.76599
   607.50000  13262.37987
   608.00000  13306.02190
   608.50000  13339.03325
   609.00000  13339.23049
   609.50000  13306.04202
   610.00000  13261.39210
   610.50000  13230.35488
   611.00000  13219.62832
   611.50000  13208.93681
   612.00000  13167.82575
   612.50000  13085.19592
   613.00000  12981.90887
   613.50000  12894.04162
   614.00000  12846.01927
   614.50000  12833.23957
   615.00000  12828.04949
   615.50000  12810.83491
   616.00000  12787.28170
   616.50000  12779.41451
   617.00000  12802.49330
   617.50000  12847.46717
   618.00000  12887.30834
   618.50000  12901.56445
   619.00000  12895.05011
   619.50000  12889.00714
   620.00000  12899.99225
   620.50000  12922.94401
   621.00000  12931.82173
   621.50000  12905.95718
   622.00000  12846.54226
   622.50000  12772.79139
   623.00000  12708.14876
   623.50000  12657.46518
   624.00000  12608.46622
   624.50000  12552.27364
   625.00000  12495.02844
   625.50000  12458.64640
   626.00000  12462.80946
   626.50000  12505.78952
   627.00000  12564.56711
   627.50000  12613.34262
   628.00000  12645.38672
   628.50000  12675.87555
   629.00000  12724.19341
   629.50000  12796.52479
   630.00000  12875.22268
   630.50000  12931.02964
   631.00000  12952.25495
   631.50000  12951.62354
   632.00000  12961.99934
   632.50000  13016.15644
   633.00000  13115.81248
   633.50000  13233.08426
   634.00000  13327.45817
   634.50000  13371.81761
   635.00000  13376.71913
   635.50000  13380.53976
   636.00000  13423.52101
   636.50000  13519.11539
   637.00000  13640.69330
   637.50000  13744.15173
   638.00000  13797.49117
   638.50000  13801.43795
   639.00000  13787.72322
   639.50000  13790.13914
   640.00000  13819.96127
   640.50000  13862.23820
   641.00000  13893.39511
   641.50000  13900.97372
   642.00000  13894.78860
   642.50000  13896.74252
   643.00000  13919.66089
   643.50000  13960.48417
   644.00000  14003.84772
   644.50000  14034.07962
   645.00000  14046.22832
   645.50000  14044.42159
   646.00000  14033.45642
   646.50000  14013.80730
   647.00000  13985.18132
   647.50000  13949.85398
   648.00000  13917.42413
   648.50000  13901.90844
   649.00000  13912.80112
   649.50000  13948.40781
   650.00000  13997.08579
   650.50000  14044.84954
   651.00000  14081.93821
   651.50000  14114.27166
   652.00000  14156.54918
   652.50000  14216.98616
   653.00000  14288.15137
   653.50000  14343.11136
   654.00000  14350.43731
   654.50000  14296.45749
   655.00000  14203.49351
   655.50000  14113.88919
   656.00000  14068.84778
   656.50000  14088.59402
   657.00000  14157.65956
   657.50000  14247.77368
   658.00000  14336.41921
   658.50000  14413.88561
   659.00000  14482.82520
   659.50000  14547.25115
   660.00000  14605.02751
   660.50000  14649.97304
   661.00000  14678.47263
   661.50000  14689.23350
